#Wave		#Intensity
4002.101563	15037.388672
4001.403320	15098.240234
4000.705078	14727.186523
4000.005859	14810.699219
3999.307617	14887.030273
3998.608398	14927.563477
3997.909180	14749.911133
3997.209961	15233.879883
3996.510742	15099.140625
3995.811523	14817.873047
3995.112305	14754.728516
3994.413086	15102.583008
3993.712891	14975.095703
3993.013672	14908.382813
3992.313477	15023.863281
3991.613281	14996.449219
3990.913086	14969.042969
3990.212891	15027.333008
3989.512695	14971.372070
3988.812500	14840.477539
3988.112305	15080.754883
3987.411133	15142.555664
3986.709961	15068.774414
3986.009766	14727.502930
3985.308594	14899.883789
3984.607422	14954.541016
3983.906250	14977.093750
3983.205078	14988.946289
3982.502930	14573.116211
3981.801758	14987.693359
3981.099609	15028.039063
3980.398438	14840.386719
3979.696289	15087.321289
3978.994141	14881.913086
3978.291992	14744.221680
3977.589844	14745.413086
3976.887695	14657.618164
3976.185547	14722.881836
3975.482422	14795.239258
3974.780273	15077.477539
3974.077148	14804.714844
3973.374023	14866.354492
3972.670898	14657.719727
3971.967773	14786.915039
3971.264648	14784.539063
3970.561523	14721.742188
3969.857422	14744.252930
3969.154297	14709.906250
3968.450195	14881.618164
3967.746094	14879.227539
3967.042969	14823.566406
3966.338867	14934.812500
3965.634766	14662.593750
3964.929688	14720.583008
3964.225586	14977.304688
3963.521484	15045.870117
3962.816406	15000.877930
3962.112305	14792.717773
3961.407227	14772.608398
3960.702148	14961.734375
3959.997070	14799.774414
3959.291992	14644.957031
3958.586914	14904.902344
3957.880859	14838.716797
3957.175781	14719.400391
3956.469727	14950.865234
3955.763672	14406.493164
3955.058594	14737.101563
3954.352539	14812.640625
3953.646484	14434.958984
3952.939453	14896.382813
3952.233398	14614.375000
3951.527344	14679.266602
3950.820313	14425.689453
3950.114258	14543.655273
3949.407227	14838.442383
3948.700195	14737.035156
3947.993164	14794.781250
3947.286133	14576.741211
3946.579102	14694.587891
3945.871094	14547.320313
3945.164063	14534.382813
3944.456055	14701.642578
3943.749023	14603.901367
3943.041016	14714.582031
3942.333008	14796.975586
3941.625000	14808.722656
3940.916992	14735.738281
3940.208984	14581.590820
3939.500000	14783.944336
3938.791992	14749.813477
3938.083008	14602.792969
3937.375000	14561.645508
3936.666016	14598.103516
3935.957031	14648.656250
3935.248047	14498.219727
3934.538086	14513.517578
3933.829102	14779.064453
3933.120117	14709.733398
3932.410156	14580.523438
3931.701172	14539.429688
3930.991211	14699.127930
3930.281250	14672.114258
3929.571289	14504.257813
3928.861328	14618.113281
3928.151367	14330.632813
3927.440430	14641.577148
3926.730469	14368.260742
3926.019531	14570.025391
3925.308594	14486.774414
3924.598633	14561.831055
3923.887695	14422.338867
3923.176758	14757.581055
3922.464844	14533.725586
3921.753906	14742.297852
3921.042969	14360.362305
3920.331055	14421.308594
3919.620117	14499.801758
3918.908203	14518.551758
3918.196289	14294.948242
3917.484375	14440.144531
3916.772461	14652.006836
3916.060547	14424.977539
3915.347656	14563.063477
3914.635742	14606.348633
3913.922852	14491.719727
3913.210938	14401.685547
3912.498047	14588.792969
3911.785156	14488.250000
3911.072266	14250.979492
3910.359375	14567.745117
3909.645508	14404.153320
3908.932617	14815.425781
3908.218750	14546.714844
3907.505859	14498.830078
3906.791992	14401.915039
3906.078125	14770.890625
3905.364258	14547.884766
3904.650391	14465.013672
3903.936523	14469.694336
3903.222656	14547.882813
3902.507813	14391.552734
3901.793945	14553.711914
3901.079102	14236.487305
3900.364258	14695.965820
3899.649414	14445.274414
3898.934570	14292.582031
3898.219727	14611.967773
3897.504883	14389.377930
3896.789063	14460.471680
3896.074219	14566.491211
3895.358398	14735.374023
3894.642578	14593.260742
3893.927734	14545.507813
3893.211914	14452.366211
3892.495117	14425.602539
3891.779297	14517.557617
3891.063477	14459.373047
3890.346680	14530.350586
3889.630859	14611.774414
3888.914063	14473.349609
3888.197266	14446.606445
3887.481445	14381.501953
3886.763672	14340.832031
3886.046875	14352.478516
3885.330078	14419.904297
3884.613281	14598.856445
3883.895508	14593.029297
3883.178711	14493.114258
3882.460938	14466.399414
3881.743164	14415.307617
3881.025391	14353.782227
3880.307617	14755.452148
3879.589844	14544.166992
3878.871094	14649.756836
3878.153320	14556.904297
3877.434570	14578.930664
3876.716797	14513.957031
3875.998047	14288.960938
3875.279297	14561.479492
3874.560547	14500.016602
3873.841797	14449.004883
3873.122070	14603.149414
3872.403320	14326.171875
3871.683594	14400.341797
3870.964844	14634.350586
3870.245117	14625.052734
3869.525391	14424.679688
3868.805664	14339.000000
3868.085938	14812.505859
3867.366211	14535.803711
3866.645508	14748.731445
3865.925781	14718.593750
3865.205078	14855.065430
3864.485352	14765.925781
3863.764648	14569.254883
3863.043945	14438.559570
3862.323242	14595.797852
3861.602539	14472.076172
3860.880859	14826.903320
3860.160156	14671.981445
3859.439453	14700.825195
3858.717773	14566.766602
3857.996094	14578.291016
3857.274414	14589.811523
3856.552734	14604.791992
3855.831055	14422.342773
3855.109375	14593.180664
3854.387695	14531.978516
3853.665039	14498.490234
3852.942383	14510.009766
3852.220703	14403.858398
3851.498047	14553.798828
3850.775391	14565.303711
3850.052734	14486.866211
3849.330078	14678.223633
3848.606445	14665.495117
3847.883789	14483.354492
3847.160156	14695.360352
3846.437500	14658.440430
3845.713867	14486.753906
3844.990234	14391.138672
3844.266602	14499.381836
3843.542969	14756.117188
3842.819336	14867.718750
3842.094727	14288.676758
3841.371094	14400.317383
3840.646484	14632.739258
3839.921875	14416.407227
3839.198242	14669.456055
3838.473633	14380.731445
3837.749023	14406.022461
3837.023438	14548.577148
3836.298828	14404.850586
3835.574219	14516.327148
3834.848633	14479.523438
3834.123047	14763.298828
3833.398438	14392.166992
3832.672852	14548.367188
3831.947266	14287.637695
3831.220703	14667.712891
3830.495117	14558.590820
3829.769531	14755.987305
3829.042969	14719.189453
3828.317383	14283.070313
3827.590820	14452.878906
3826.864258	14701.786133
3826.137695	14441.362305
3825.411133	14559.458008
3824.684570	14522.725586
3823.957031	14300.287109
3823.230469	14315.187500
3822.502930	14412.597656
3821.775391	14668.103516
3821.048828	14572.952148
3820.321289	14340.372070
3819.593750	14547.664063
3818.865234	14610.603516
3818.137695	14663.217773
3817.410156	14283.097656
3816.681641	14644.780273
3815.953125	14422.709961
3815.225586	14447.858398
3814.497070	14431.813477
3813.768555	14731.472656
3813.040039	14410.031250
3812.310547	14490.050781
3811.582031	14556.325195
3810.852539	14622.577148
3810.124023	14589.374023
3809.394531	14525.327148
3808.665039	14666.959961
3807.935547	14623.482422
3807.206055	14288.761719
3806.476563	14646.202148
3805.747070	14671.257813
3805.016602	14881.250000
3804.286133	14577.520508
3803.556641	14571.759766
3802.826172	14240.790039
3802.095703	14710.841797
3801.365234	14581.863281
3800.634766	14634.271484
3799.903320	14802.978516
3799.172852	14800.605469
3798.441406	14435.714844
3797.710938	14628.308594
3796.979492	14612.287109
3796.248047	14548.415039
3795.516602	14286.331055
3794.785156	14861.553711
3794.053711	14671.252930
3793.321289	14569.833008
3792.589844	14430.874023
3791.857422	14469.541016
3791.125000	14521.853516
3790.393555	14475.144531
3789.661133	14462.583008
3788.927734	14572.888672
3788.195313	14608.088867
3787.462891	14728.570313
3786.729492	14640.928711
3785.997070	14471.458984
3785.263672	14758.999023
3784.530273	14538.420898
3783.796875	14512.227539
3783.063477	14680.325195
3782.330078	14749.538086
3781.596680	14614.286133
3780.862305	14550.620117
3780.128906	14592.569336
3779.394531	14552.766602
3778.660156	14662.805664
3777.925781	14238.278320
3777.191406	14658.105469
3776.457031	14727.231445
3775.722656	14786.125000
3774.988281	14518.361328
3774.252930	14767.777344
3773.517578	14860.649414
3772.783203	14664.418945
3772.047852	14709.672852
3771.312500	14918.099609
3770.577148	14735.550781
3769.840820	14634.626953
3769.105469	14584.708008
3768.370117	14701.285156
3767.633789	14586.827148
3766.897461	14618.454102
3766.161133	14979.475586
3765.425781	14898.981445
3764.688477	14455.262695
3763.952148	14503.860352
3763.215820	14511.716797
3762.478516	15042.125977
3761.742188	14870.082031
3761.004883	14955.893555
3760.267578	14892.448242
3759.530273	14730.682617
3758.792969	14836.817383
3758.055664	14847.999023
3757.318359	14604.971680
3756.581055	14829.684570
3755.842773	14688.386719
3755.104492	15143.382813
3754.367188	14798.844727
3753.628906	14776.152344
3752.890625	14963.409180
3752.151367	15089.664063
3751.413086	14887.526367
3750.674805	14820.834961
3749.935547	14953.819336
3749.197266	15036.008789
3748.458008	15138.468750
3747.718750	15102.218750
3746.979492	15076.125977
3746.240234	14908.027344
3745.500977	14831.261719
3744.760742	14964.092773
3744.021484	14927.898438
3743.281250	14959.296875
3742.541992	15014.334961
3741.801758	14755.199219
3741.061523	14891.311523
3740.321289	15105.048828
3739.581055	15153.274414
3738.839844	14867.273438
3738.099609	14800.759766
3737.358398	14835.510742
3736.618164	15065.955078
3735.876953	14958.956055
3735.135742	14956.559570
3734.394531	15136.283203
3733.653320	15046.183594
3732.911133	14895.425781
3732.169922	15206.541016
3731.427734	14708.647461
3730.686523	15117.419922
3729.944336	15084.672852
3729.202148	14974.453125
3728.459961	14924.897461
3727.717773	15131.305664
3726.974609	14994.192383
3726.232422	14991.790039
3725.490234	15255.312500
3724.747070	15020.641602
3724.003906	15061.980469
3723.260742	14911.528320
3722.517578	15171.528320
3721.774414	14967.291016
3721.031250	15133.038086
3720.288086	14979.306641
3719.543945	15037.418945
3718.799805	15065.260742
3718.056641	15005.714844
3717.312500	15204.921875
3716.568359	15286.477539
3715.824219	15126.148438
3715.079102	15291.654297
3714.334961	15178.388672
3713.590820	15068.515625
3712.845703	15180.238281
3712.100586	15238.221680
3711.356445	15366.660156
3710.611328	15203.140625
3709.866211	15227.542969
3709.120117	15067.452148
3708.375000	15182.418945
3707.629883	15277.229492
3706.883789	15351.892578
3706.137695	15061.149414
3705.391602	15018.516602
3704.646484	15240.630859
3703.899414	15074.013672
3703.153320	15527.196289
3702.407227	15380.682617
3701.661133	14983.045898
3700.914063	15231.773438
3700.166992	15138.941406
3699.420898	15026.054688
3698.673828	15361.670898
3697.926758	15298.976563
3697.178711	15229.611328
3696.431641	15274.003906
3695.684570	15191.285156
3694.936523	15509.883789
3694.189453	15397.061523
3693.441406	15528.315430
3692.693359	15529.169922
3691.945313	15433.107422
3691.197266	15256.880859
3690.448242	15321.253906
3689.700195	15298.756836
3688.952148	15520.072266
3688.203125	15567.674805
3687.454102	15374.873047
3686.705078	15505.937500
3685.956055	15343.245117
3685.207031	15437.563477
3684.458008	15421.744141
3683.708984	15526.027344
3682.958984	15320.072266
3682.208984	15684.466797
3681.459961	15758.646484
3680.709961	15496.075195
3679.959961	15376.923828
3679.209961	15501.109375
3678.458984	15565.271484
3677.708984	15899.288086
3676.958984	15566.947266
3676.208008	15427.893555
3675.457031	15678.515625
3674.706055	15636.047852
3673.955078	15523.681641
3673.204102	15604.409180
3672.453125	15615.221680
3671.702148	15662.632813
3670.950195	15819.818359
3670.199219	15890.465820
3669.447266	15761.535156
3668.695313	15955.208008
3667.943359	16135.518555
3667.191406	15930.149414
3666.439453	15784.674805
3665.687500	15752.236328
3664.934570	16042.112305
3664.182617	16215.618164
3663.429688	15867.567383
3662.676758	16266.881836
3661.923828	16051.757813
3661.170898	16490.753906
3660.417969	16239.147461
3659.665039	16040.724609
3658.911133	16403.185547
3658.158203	16466.917969
3657.404297	16457.644531
3656.650391	16461.640625
3655.896484	16502.117188
3655.142578	16791.263672
3654.388672	16447.099609
3653.634766	16686.441406
3652.879883	16368.917969
3652.125977	16876.603516
3651.371094	16658.544922
3650.616211	16735.378906
3649.861328	17239.447266
3649.106445	16869.101563
3648.351563	17154.458984
3647.596680	16807.417969
3646.840820	16993.394531
3646.085938	17076.716797
3645.330078	17325.458984
3644.574219	17584.044922
3643.818359	17167.746094
3643.062500	17522.187500
3642.306641	17582.208984
3641.550781	17605.841797
3640.793945	17460.875000
3640.038086	17659.695313
3639.281250	17957.591797
3638.524414	18030.708984
3637.768555	17555.404297
3637.011719	17466.710938
3636.253906	17648.857422
3635.497070	18019.158203
3634.740234	18181.345703
3633.982422	18194.937500
3633.224609	18046.804688
3632.467773	18350.804688
3631.709961	18304.972656
3630.952148	17823.707031
3630.194336	18513.500000
3629.435547	18444.578125
3628.677734	18751.566406
3627.918945	18507.900391
3627.161133	18607.117188
3626.402344	18119.669922
3625.643555	18683.535156
3624.884766	18479.568359
3624.125977	18891.666016
3623.367188	18608.685547
3622.607422	18862.562500
3621.848633	19014.289063
3621.088867	18813.722656
3620.329102	19225.433594
3619.569336	19021.605469
3618.809570	19192.949219
3618.049805	19045.121094
3617.290039	18867.734375
3616.530273	18996.263672
3615.769531	19233.267578
3615.008789	19223.609375
3614.249023	19440.775391
3613.488281	19279.898438
3612.727539	19421.402344
3611.966797	19217.865234
3611.205078	19687.847656
3610.444336	19395.646484
3609.682617	19287.449219
3608.921875	19681.669922
3608.160156	19632.554688
3607.398438	19370.091797
3606.636719	19307.912109
3605.875000	19655.935547
3605.113281	19590.449219
3604.350586	19715.246094
3603.588867	19840.003906
3602.826172	19751.560547
3602.063477	19666.425781
3601.301758	19617.378906
3600.539063	20115.736328
3599.775391	20010.919922
3599.012695	20161.720703
3598.250000	20014.337891
3597.486328	20220.773438
3596.723633	19912.945313
3595.959961	20355.105469
3595.196289	20034.255859
3594.432617	19759.339844
3593.668945	19824.908203
3592.904297	20299.521484
3592.140625	19736.755859
3591.376953	20325.732422
3590.612305	19864.542969
3589.847656	20158.968750
3589.083008	20113.230469
3588.318359	20106.740234
3587.553711	20087.173828
3586.789063	20263.714844
3586.023438	20188.576172
3585.258789	20195.144531
3584.493164	20231.109375
3583.727539	20201.738281
3582.962891	20038.482422
3582.197266	20025.476563
3581.430664	20404.236328
3580.665039	20355.267578
3579.899414	20348.744141
3579.132813	20068.119141
3578.367188	20188.882813
3577.600586	20482.496094
3576.833984	20074.783203
3576.067383	20391.148438
3575.300781	20084.654297
3574.533203	20312.894531
3573.766602	20237.933594
3572.999023	20205.361328
3572.232422	20322.685547
3571.464844	20143.503906
3570.697266	20391.093750
3569.929688	19993.748047
3569.162109	20120.798828
3568.394531	20182.691406
3567.625977	20407.326172
3566.858398	20443.113281
3566.089844	20342.212891
3565.321289	20517.908203
3564.552734	20241.351563
3563.784180	20251.119141
3563.015625	20634.880859
3562.247070	20495.007813
3561.477539	20673.785156
3560.708984	20299.906250
3559.939453	20306.404297
3559.169922	20475.376953
3558.400391	20059.470703
3557.630859	20400.599609
3556.861328	20290.146484
3556.091797	20416.794922
3555.321289	20280.398438
3554.551758	20682.953125
3553.781250	19952.556641
3553.010742	20442.658203
3552.240234	20481.566406
3551.469727	20432.865234
3550.699219	20721.535156
3549.928711	20089.015625
3549.157227	20367.917969
3548.386719	20598.097656
3547.615234	20124.746094
3546.843750	20409.990234
3546.072266	20513.664063
3545.300781	20490.935547
3544.529297	20218.759766
3543.757813	20222.000000
3542.985352	20383.929688
3542.213867	20118.376953
3541.441406	20461.576172
3540.668945	20409.742188
3539.896484	20390.289063
3539.124023	19775.412109
3538.351563	20144.328125
3537.578125	20154.041016
3536.805664	20108.763672
3536.032227	20273.707031
3535.259766	20154.054688
3534.486328	20024.742188
3533.712891	20289.824219
3532.939453	20541.892578
3532.165039	20225.158203
3531.391602	20166.992188
3530.618164	20147.611328
3529.843750	19999.041016
3529.069336	20208.970703
3528.294922	20102.412109
3527.520508	20205.722656
3526.746094	19976.542969
3525.971680	20028.205078
3525.197266	19744.273438
3524.421875	20179.873047
3523.647461	20150.833984
3522.872070	20154.054688
3522.096680	20079.884766
3521.321289	19731.685547
3520.545898	20173.382813
3519.769531	20234.611328
3518.994141	20263.595703
3518.218750	20060.580078
3517.442383	20144.347656
3516.666016	19819.017578
3515.889648	20015.513672
3515.113281	19748.267578
3514.336914	19906.078125
3513.560547	19674.341797
3512.783203	19799.927734
3512.006836	19668.037109
3511.229492	20186.107422
3510.452148	20314.767578
3509.674805	19970.574219
3508.897461	20073.498047
3508.120117	19584.761719
3507.342773	19993.125000
3506.564453	19768.132813
3505.787109	19764.964844
3505.008789	19899.970703
3504.230469	19848.589844
3503.452148	19925.716797
3502.673828	19765.148438
3501.895508	19993.189453
3501.117188	19928.982422
3500.337891	19835.904297
3499.559570	19771.740234
3498.780273	19784.619141
3498.000977	20050.976563
3497.221680	19948.310547
3496.442383	20044.550781
3495.663086	19874.568359
3494.883789	19781.599609
3494.103516	19691.865234
3493.324219	19970.800781
3492.543945	19996.447266
3491.763672	19900.310547
3490.983398	19861.876953
3490.203125	19640.853516
3489.422852	19759.421875
3488.641602	20060.494141
3487.861328	19634.617188
3487.080078	19826.759766
3486.298828	19926.013672
3485.517578	19775.599609
3484.736328	19554.835938
3483.955078	20057.210938
3483.173828	19865.261719
3482.392578	19964.427734
3481.610352	19916.457031
3480.828125	20114.701172
3480.046875	19817.365234
3479.264648	19823.779297
3478.482422	19804.623047
3477.700195	19756.714844
3476.916992	19622.562500
3476.134766	19638.583984
3475.351563	20053.822266
3474.569336	19942.037109
3473.786133	19878.179688
3473.002930	19718.574219
3472.219727	19938.835938
3471.436523	19760.123047
3470.652344	19989.878906
3469.869141	19804.833984
3469.084961	19747.435547
3468.300781	19772.972656
3467.517578	19645.445313
3466.733398	19788.953125
3465.949219	19801.720703
3465.164063	19505.330078
3464.379883	19722.082031
3463.594727	19527.753906
3462.810547	19817.701172
3462.025391	19808.154297
3461.240234	19754.027344
3460.455078	19811.359375
3459.669922	19508.927734
3458.884766	19696.785156
3458.098633	19808.201172
3457.313477	19486.822266
3456.527344	19785.943359
3455.742188	19875.023438
3454.956055	19750.978516
3454.169922	19649.232422
3453.382813	19528.443359
3452.596680	19483.986328
3451.810547	19827.316406
3451.023438	19636.638672
3450.237305	19534.992188
3449.450195	19589.044922
3448.663086	19601.789063
3447.875977	19671.693359
3447.088867	19706.644531
3446.300781	19576.490234
3445.513672	19605.097656
3444.725586	19309.957031
3443.937500	19519.478516
3443.150391	19510.003906
3442.362305	19716.253906
3441.574219	19265.861328
3440.785156	19294.488281
3439.997070	19354.812500
3439.208984	19716.298828
3438.419922	19301.060547
3437.630859	19285.289063
3436.841797	19744.845703
3436.052734	19209.406250
3435.263672	19627.642578
3434.474609	19570.654297
3433.684570	19906.361328
3432.895508	19570.712891
3432.105469	19421.951172
